# 
# SAND AVERAGE REFLECTANCE 
# WARNING : VALUES OF DRY SAND GROUND REFLECTANCE ARE GIVEN 
# BETWEEN 0.4 AND 2.2 MICRONS. OUTSIDE THIS INTERVAL THE 
# VALUES ARE SET TO 0. 
# 
# 
#       column1:        wavelength / nm
#       column2:        'mean' reflectance
#
#       data source: 5S source code 
#
#       data processed by:
#               Lewis, Dept. Geog., UCL
#               Tue Mar 16 1993
#
#
250000 0.000
255000 0.000
260000 0.000
265000 0.000
270000 0.000
275000 0.000
280000 0.000
285000 0.000
290000 0.000
295000 0.000
300000 0.000
305000 0.000
310000 0.000
315000 0.000
320000 0.000
325000 0.000
330000 0.000
335000 0.000
340000 0.000
345000 0.000
350000 0.000
355000 0.000
360000 0.000
365000 0.000
370000 0.000
375000 0.000
380000 0.000
385000 0.000
390000 0.000
395000 0.000
400000 0.091
405000 0.091
410000 0.091
415000 0.091
420000 0.091
425000 0.091
430000 0.095
435000 0.095
440000 0.095
445000 0.095
450000 0.095
455000 0.095
460000 0.095
465000 0.097
470000 0.097
475000 0.100
480000 0.103
485000 0.103
490000 0.107
495000 0.107
500000 0.107
505000 0.107
510000 0.110
515000 0.114
520000 0.117
525000 0.121
530000 0.121
535000 0.125
540000 0.125
545000 0.125
550000 0.128
555000 0.126
560000 0.131
565000 0.134
570000 0.134
575000 0.134
580000 0.134
585000 0.134
590000 0.134
595000 0.141
600000 0.145
605000 0.149
610000 0.149
615000 0.154
620000 0.157
625000 0.160
630000 0.163
635000 0.163
640000 0.166
645000 0.169
650000 0.173
655000 0.177
660000 0.181
665000 0.185
670000 0.189
675000 0.195
680000 0.199
685000 0.204
690000 0.204
695000 0.208
700000 0.214
705000 0.220
710000 0.224
715000 0.228
720000 0.233
725000 0.235
730000 0.239
735000 0.242
740000 0.246
745000 0.246
750000 0.248
755000 0.251
760000 0.254
765000 0.256
770000 0.260
775000 0.263
780000 0.263
785000 0.263
790000 0.266
795000 0.270
800000 0.273
805000 0.276
810000 0.279
815000 0.279
820000 0.282
825000 0.284
830000 0.284
835000 0.284
840000 0.286
845000 0.286
850000 0.286
855000 0.290
860000 0.292
865000 0.292
870000 0.292
875000 0.292
880000 0.292
885000 0.292
890000 0.292
895000 0.295
900000 0.295
905000 0.298
910000 0.298
915000 0.301
920000 0.301
925000 0.306
930000 0.306
935000 0.310
940000 0.310
945000 0.314
950000 0.314
955000 0.314
960000 0.316
965000 0.316
970000 0.316
975000 0.316
980000 0.316
985000 0.319
990000 0.321
995000 0.321
1000000 0.321
1005000 0.321
1010000 0.324
1015000 0.324
1020000 0.324
1025000 0.324
1030000 0.322
1035000 0.322
1040000 0.322
1045000 0.320
1050000 0.320
1055000 0.317
1060000 0.317
1065000 0.317
1070000 0.320
1075000 0.320
1080000 0.320
1085000 0.323
1090000 0.323
1095000 0.327
1100000 0.327
1105000 0.327
1110000 0.329
1115000 0.329
1120000 0.332
1125000 0.332
1130000 0.332
1135000 0.332
1140000 0.333
1145000 0.335
1150000 0.338
1155000 0.341
1160000 0.345
1165000 0.348
1170000 0.353
1175000 0.353
1180000 0.353
1185000 0.353
1190000 0.355
1195000 0.355
1200000 0.355
1205000 0.355
1210000 0.353
1215000 0.353
1220000 0.353
1225000 0.353
1230000 0.353
1235000 0.353
1240000 0.356
1245000 0.356
1250000 0.356
1255000 0.356
1260000 0.360
1265000 0.360
1270000 0.360
1275000 0.363
1280000 0.363
1285000 0.363
1290000 0.367
1295000 0.367
1300000 0.367
1305000 0.370
1310000 0.370
1315000 0.370
1320000 0.370
1325000 0.370
1330000 0.370
1335000 0.367
1340000 0.367
1345000 0.364
1350000 0.362
1355000 0.362
1360000 0.362
1365000 0.359
1370000 0.359
1375000 0.359
1380000 0.359
1385000 0.359
1390000 0.363
1395000 0.363
1400000 0.363
1405000 0.363
1410000 0.363
1415000 0.365
1420000 0.369
1425000 0.369
1430000 0.369
1435000 0.369
1440000 0.369
1445000 0.372
1450000 0.372
1455000 0.372
1460000 0.372
1465000 0.375
1470000 0.375
1475000 0.375
1480000 0.375
1485000 0.375
1490000 0.375
1495000 0.375
1500000 0.375
1505000 0.375
1510000 0.375
1515000 0.375
1520000 0.375
1525000 0.375
1530000 0.375
1535000 0.375
1540000 0.377
1545000 0.377
1550000 0.377
1555000 0.377
1560000 0.377
1565000 0.377
1570000 0.377
1575000 0.377
1580000 0.377
1585000 0.377
1590000 0.377
1595000 0.377
1600000 0.379
1605000 0.379
1610000 0.379
1615000 0.379
1620000 0.382
1625000 0.382
1630000 0.382
1635000 0.382
1640000 0.385
1645000 0.385
1650000 0.385
1655000 0.385
1660000 0.385
1665000 0.385
1670000 0.388
1675000 0.388
1680000 0.388
1685000 0.388
1690000 0.388
1695000 0.388
1700000 0.388
1705000 0.391
1710000 0.391
1715000 0.391
1720000 0.391
1725000 0.391
1730000 0.391
1735000 0.391
1740000 0.391
1745000 0.391
1750000 0.391
1755000 0.391
1760000 0.394
1765000 0.394
1770000 0.394
1775000 0.394
1780000 0.394
1785000 0.394
1790000 0.394
1795000 0.396
1800000 0.396
1805000 0.396
1810000 0.396
1815000 0.396
1820000 0.396
1825000 0.393
1830000 0.393
1835000 0.393
1840000 0.393
1845000 0.389
1850000 0.386
1855000 0.386
1860000 0.382
1865000 0.382
1870000 0.378
1875000 0.378
1880000 0.374
1885000 0.369
1890000 0.369
1895000 0.369
1900000 0.371
1905000 0.371
1910000 0.371
1915000 0.371
1920000 0.371
1925000 0.371
1930000 0.371
1935000 0.371
1940000 0.371
1945000 0.371
1950000 0.374
1955000 0.374
1960000 0.377
1965000 0.377
1970000 0.377
1975000 0.377
1980000 0.379
1985000 0.379
1990000 0.379
1995000 0.379
2000000 0.383
2005000 0.385
2010000 0.388
2015000 0.388
2020000 0.388
2025000 0.392
2030000 0.392
2035000 0.392
2040000 0.395
2045000 0.395
2050000 0.395
2055000 0.395
2060000 0.395
2065000 0.393
2070000 0.393
2075000 0.393
2080000 0.388
2085000 0.388
2090000 0.388
2095000 0.388
2100000 0.388
2105000 0.385
2110000 0.385
2115000 0.385
2120000 0.381
2125000 0.381
2130000 0.381
2135000 0.381
2140000 0.381
2145000 0.381
2150000 0.381
2155000 0.381
2160000 0.374
2165000 0.374
2170000 0.374
2175000 0.374
2180000 0.374
2185000 0.374
2190000 0.374
2195000 0.374
2200000 0.372
2205000 0.369
2210000 0.369
2215000 0.369
2220000 0.369
2225000 0.369
2230000 0.369
2235000 0.369
2240000 0.369
2245000 0.369
2250000 0.369
2255000 0.369
2260000 0.369
2265000 0.369
2270000 0.369
2275000 0.369
2280000 0.369
2285000 0.369
2290000 0.369
2295000 0.369
2300000 0.369
2305000 0.000
2310000 0.000
2315000 0.000
2320000 0.000
2325000 0.000
2330000 0.000
2335000 0.000
2340000 0.000
2345000 0.000
2350000 0.000
2355000 0.000
2360000 0.000
2365000 0.000
2370000 0.000
2375000 0.000
2380000 0.000
2385000 0.000
2390000 0.000
2395000 0.000
2400000 0.000
2405000 0.000
2410000 0.000
2415000 0.000
2420000 0.000
2425000 0.000
2430000 0.000
2435000 0.000
2440000 0.000
2445000 0.000
2450000 0.000
2455000 0.000
2460000 0.000
2465000 0.000
2470000 0.000
2475000 0.000
2480000 0.000
2485000 0.000
2490000 0.000
2495000 0.000
2500000 0.000
2505000 0.000
2510000 0.000
2515000 0.000
2520000 0.000
2525000 0.000
2530000 0.000
2535000 0.000
2540000 0.000
2545000 0.000
2550000 0.000
2555000 0.000
2560000 0.000
2565000 0.000
2570000 0.000
2575000 0.000
2580000 0.000
2585000 0.000
2590000 0.000
2595000 0.000
2600000 0.000
2605000 0.000
2610000 0.000
2615000 0.000
2620000 0.000
2625000 0.000
2630000 0.000
2635000 0.000
2640000 0.000
2645000 0.000
2650000 0.000
2655000 0.000
2660000 0.000
2665000 0.000
2670000 0.000
2675000 0.000
2680000 0.000
2685000 0.000
2690000 0.000
2695000 0.000
2700000 0.000
2705000 0.000
2710000 0.000
2715000 0.000
2720000 0.000
2725000 0.000
2730000 0.000
2735000 0.000
2740000 0.000
2745000 0.000
2750000 0.000
2755000 0.000
2760000 0.000
2765000 0.000
2770000 0.000
2775000 0.000
2780000 0.000
2785000 0.000
2790000 0.000
2795000 0.000
2800000 0.000
2805000 0.000
2810000 0.000
2815000 0.000
2820000 0.000
2825000 0.000
2830000 0.000
2835000 0.000
2840000 0.000
2845000 0.000
2850000 0.000
2855000 0.000
2860000 0.000
2865000 0.000
2870000 0.000
2875000 0.000
2880000 0.000
2885000 0.000
2890000 0.000
2895000 0.000
2900000 0.000
2905000 0.000
2910000 0.000
2915000 0.000
2920000 0.000
2925000 0.000
2930000 0.000
2935000 0.000
2940000 0.000
2945000 0.000
2950000 0.000
2955000 0.000
2960000 0.000
2965000 0.000
2970000 0.000
2975000 0.000
2980000 0.000
2985000 0.000
2990000 0.000
2995000 0.000
3000000 0.000
3005000 0.000
3010000 0.000
3015000 0.000
3020000 0.000
3025000 0.000
3030000 0.000
3035000 0.000
3040000 0.000
3045000 0.000
3050000 0.000
3055000 0.000
3060000 0.000
3065000 0.000
3070000 0.000
3075000 0.000
3080000 0.000
3085000 0.000
3090000 0.000
3095000 0.000
3100000 0.000
3105000 0.000
3110000 0.000
3115000 0.000
3120000 0.000
3125000 0.000
3130000 0.000
3135000 0.000
3140000 0.000
3145000 0.000
3150000 0.000
3155000 0.000
3160000 0.000
3165000 0.000
3170000 0.000
3175000 0.000
3180000 0.000
3185000 0.000
3190000 0.000
3195000 0.000
3200000 0.000
3205000 0.000
3210000 0.000
3215000 0.000
3220000 0.000
3225000 0.000
3230000 0.000
3235000 0.000
3240000 0.000
3245000 0.000
3250000 0.000
3255000 0.000
3260000 0.000
3265000 0.000
3270000 0.000
3275000 0.000
3280000 0.000
3285000 0.000
3290000 0.000
3295000 0.000
3300000 0.000
3305000 0.000
3310000 0.000
3315000 0.000
3320000 0.000
3325000 0.000
3330000 0.000
3335000 0.000
3340000 0.000
3345000 0.000
3350000 0.000
3355000 0.000
3360000 0.000
3365000 0.000
3370000 0.000
3375000 0.000
3380000 0.000
3385000 0.000
3390000 0.000
3395000 0.000
3400000 0.000
3405000 0.000
3410000 0.000
3415000 0.000
3420000 0.000
3425000 0.000
3430000 0.000
3435000 0.000
3440000 0.000
3445000 0.000
3450000 0.000
3455000 0.000
3460000 0.000
3465000 0.000
3470000 0.000
3475000 0.000
3480000 0.000
3485000 0.000
3490000 0.000
3495000 0.000
3500000 0.000
3505000 0.000
3510000 0.000
3515000 0.000
3520000 0.000
3525000 0.000
3530000 0.000
3535000 0.000
3540000 0.000
3545000 0.000
3550000 0.000
3555000 0.000
3560000 0.000
3565000 0.000
3570000 0.000
3575000 0.000
3580000 0.000
3585000 0.000
3590000 0.000
3595000 0.000
3600000 0.000
3605000 0.000
3610000 0.000
3615000 0.000
3620000 0.000
3625000 0.000
3630000 0.000
3635000 0.000
3640000 0.000
3645000 0.000
3650000 0.000
3655000 0.000
3660000 0.000
3665000 0.000
3670000 0.000
3675000 0.000
3680000 0.000
3685000 0.000
3690000 0.000
3695000 0.000
3700000 0.000
3705000 0.000
3710000 0.000
3715000 0.000
3720000 0.000
3725000 0.000
3730000 0.000
3735000 0.000
3740000 0.000
3745000 0.000
3750000 0.000
3755000 0.000
3760000 0.000
3765000 0.000
3770000 0.000
3775000 0.000
3780000 0.000
3785000 0.000
3790000 0.000
3795000 0.000
3800000 0.000
3805000 0.000
3810000 0.000
3815000 0.000
3820000 0.000
3825000 0.000
3830000 0.000
3835000 0.000
3840000 0.000
3845000 0.000
3850000 0.000
3855000 0.000
3860000 0.000
3865000 0.000
3870000 0.000
3875000 0.000
3880000 0.000
3885000 0.000
3890000 0.000
3895000 0.000
3900000 0.000
3905000 0.000
3910000 0.000
3915000 0.000
3920000 0.000
3925000 0.000
3930000 0.000
3935000 0.000
3940000 0.000
3945000 0.000
3950000 0.000
3955000 0.000
3960000 0.000
3965000 0.000
3970000 0.000
3975000 0.000
3980000 0.000
3985000 0.000
3990000 0.000
3995000 0.000
4000000 0.000
